p [mb], dTabs[K], dq[g/kg]
 1,  18
    965.00       0.28546       0.59927    
    915.00       0.43590      -0.99109E-01
    865.00       0.24077      -0.47947    
    815.00       0.43006       0.75095E-01
    765.00      -0.78481      -0.42230    
    715.00       0.33316       0.25589    
    665.00       0.58691      -0.11127    
    615.00       0.10163       0.73381E-01
    565.00       0.84302      -0.28400E-01
    515.00       0.20170E-01   0.64401E-01
    465.00      -0.58106       0.47410E-02
    415.00       0.39804       0.19254E-01
    365.00       0.35610E-01  -0.12100E-02
    315.00       0.41348       0.54270E-02
    265.00       0.40327       0.64600E-03
    215.00       0.84952       0.15560E-02
    165.00      -0.71957      -0.80500E-03
    115.00      -0.59175       0.15500E-03
 2,  18
    965.00      -0.12025       0.12055    
    915.00       0.10677       0.47630    
    865.00       0.83171      -0.28907    
    815.00       0.33545       0.12919    
    765.00       0.72356      -0.33307    
    715.00       0.29160       0.23116E-01
    665.00       0.95758       0.13681    
    615.00      -0.75452E-01  -0.28078E-01
    565.00       0.93299       0.43811E-01
    515.00       0.61712       0.36961E-01
    465.00      -0.45768       0.51547E-01
    415.00      -0.93540      -0.21330E-02
    365.00      -0.10078       0.46590E-02
    315.00      -0.49697      -0.65990E-02
    265.00       0.46855      -0.28210E-02
    215.00       0.89251      -0.15300E-02
    165.00      -0.71245       0.57200E-03
    115.00      -0.12182      -0.46500E-03
 3,  18
    965.00      -0.90692E-01   0.51173    
    915.00      -0.70442      -0.14223E-01
    865.00      -0.43392      -0.50397    
    815.00       0.72982       0.31113    
    765.00       0.10397       0.16272    
    715.00      -0.20146       0.17189E-01
    665.00       0.30371E-01   0.13676E-01
    615.00      -0.53265      -0.24771E-01
    565.00       0.58857E-01  -0.37628E-01
    515.00       0.24832       0.10792E-01
    465.00      -0.68793       0.25780E-01
    415.00      -0.10839       0.94710E-02
    365.00      -0.51733       0.11265E-01
    315.00      -0.33341      -0.41100E-02
    265.00      -0.43857       0.56000E-04
    215.00       0.67357       0.91500E-03
    165.00       0.38812      -0.42500E-03
    115.00       0.13231      -0.42100E-03
 4,  18
    965.00       0.29645      -0.78927E-01
    915.00      -0.38578E-01   0.31312    
    865.00      -0.19124       0.59873E-01
    815.00       0.43498       0.44098    
    765.00      -0.55113       0.24110    
    715.00       0.61431       0.30459    
    665.00       0.17594      -0.11255    
    615.00       0.18119       0.88535E-01
    565.00       0.74767      -0.25662E-01
    515.00      -0.82622       0.66831E-01
    465.00       0.16523      -0.51222E-01
    415.00       0.84956       0.21262E-01
    365.00       0.81335       0.13103E-01
    315.00      -0.84430       0.56440E-02
    265.00      -0.34961       0.45900E-03
    215.00       0.36055       0.23700E-03
    165.00      -0.73429E-01  -0.11000E-04
    115.00      -0.12500      -0.34400E-03
 5,  18
    965.00       0.95316E-01   0.23054E-01
    915.00      -0.13196      -0.12894    
    865.00      -0.12164      -0.45456    
    815.00       0.42378      -0.48373    
    765.00      -0.77239       0.40918    
    715.00       0.14266      -0.15191    
    665.00       0.25288      -0.85015E-01
    615.00       0.48229      -0.12913    
    565.00      -0.88547       0.23334E-01
    515.00      -0.18026       0.64229E-01
    465.00      -0.23826       0.21767E-01
    415.00       0.88087       0.27513E-01
    365.00       0.93913       0.10710E-01
    315.00       0.44511       0.28320E-02
    265.00      -0.22863      -0.17100E-03
    215.00      -0.15180E-02   0.10200E-03
    165.00      -0.59751      -0.74000E-03
    115.00       0.46184      -0.59100E-03
 6,  18
    965.00      -0.19169       0.33904    
    915.00      -0.55161       0.38290    
    865.00       0.70836      -0.21428    
    815.00      -0.70430       0.35740    
    765.00       0.28198      -0.32536    
    715.00       0.45906E-01  -0.28905    
    665.00       0.81979       0.15184    
    615.00      -0.19657E-01  -0.11626    
    565.00      -0.14741       0.37197E-01
    515.00      -0.23279       0.17303E-01
    465.00       0.14328       0.41784E-01
    415.00       0.64579      -0.18607E-01
    365.00      -0.61016      -0.74390E-02
    315.00      -0.50791       0.39850E-02
    265.00      -0.21174       0.27040E-02
    215.00       0.41890E-02  -0.13490E-02
    165.00      -0.74415E-01   0.80100E-03
    115.00      -0.38634       0.46600E-03
 7,  18
    965.00      -0.59996E-01  -0.86711E-01
    915.00      -0.41268       0.55764E-01
    865.00      -0.19128      -0.83927E-01
    815.00       0.41868      -0.11092    
    765.00      -0.13196      -0.19313    
    715.00      -0.84980E-01   0.15111E-01
    665.00      -0.56269       0.16255    
    615.00      -0.44656      -0.16217    
    565.00      -0.19029       0.99710E-02
    515.00       0.13349      -0.48873E-01
    465.00       0.32218      -0.29995E-01
    415.00      -0.86897      -0.10546E-01
    365.00      -0.37613      -0.20630E-02
    315.00       0.61313E-01  -0.11400E-02
    265.00       0.20923       0.28140E-02
    215.00       0.83285       0.16710E-02
    165.00       0.97548      -0.22000E-04
    115.00       0.13728      -0.62400E-03
 8,  18
    965.00      -0.29422      -0.11427    
    915.00      -0.61619       0.20967    
    865.00      -0.60069       0.47796    
    815.00       0.34139E-01   0.26733    
    765.00      -0.43274      -0.32171    
    715.00      -0.68469       0.23793    
    665.00       0.34717E-01   0.31431E-01
    615.00       0.35719      -0.83420E-02
    565.00      -0.35508      -0.34132E-01
    515.00       0.34048      -0.34872E-01
    465.00      -0.70142      -0.26097E-01
    415.00      -0.83564E-01  -0.18265E-01
    365.00       0.13800       0.72070E-02
    315.00       0.36125E-01   0.66360E-02
    265.00       0.21190      -0.13280E-02
    215.00      -0.76596      -0.11000E-03
    165.00      -0.29128       0.49700E-03
    115.00       0.65457      -0.63900E-03
 9,  18
    965.00      -0.67007       0.19434    
    915.00       0.25959       0.38648    
    865.00      -0.72805       0.53269E-01
    815.00       0.23659      -0.36024    
    765.00       0.69531       0.35803    
    715.00      -0.48103      -0.13554    
    665.00       0.81392       0.66691E-01
    615.00      -0.42765       0.30367E-01
    565.00      -0.53575       0.64347E-01
    515.00       0.61507       0.37265E-01
    465.00       0.22529       0.35394E-01
    415.00       0.38814      -0.36740E-02
    365.00       0.30521       0.16143E-01
    315.00       0.75929      -0.78480E-02
    265.00      -0.65657       0.17420E-02
    215.00       0.78464       0.14300E-02
    165.00      -0.86800E-03  -0.12000E-04
    115.00       0.85158       0.42300E-03
 10,  18
    965.00       0.37720       0.26754    
    915.00      -0.38281       0.40962    
    865.00       0.34782      -0.50821    
    815.00      -0.34927      -0.28640    
    765.00       0.47849E-01   0.10641    
    715.00       0.57679      -0.14841    
    665.00      -0.90304      -0.82690E-01
    615.00      -0.57689       0.24346E-01
    565.00       0.22055      -0.12913E-01
    515.00       0.99010      -0.40182E-01
    465.00       0.30213       0.11550E-02
    415.00       0.92236E-01  -0.19807E-01
    365.00      -0.79108      -0.17088E-01
    315.00       0.19108      -0.60780E-02
    265.00      -0.10388      -0.44600E-03
    215.00      -0.21420      -0.11540E-02
    165.00       0.70068      -0.57600E-03
    115.00      -0.95853       0.60100E-03
 11,  18
    965.00       0.17350       0.13138    
    915.00      -0.39540      -0.37764    
    865.00       0.37527E-01   0.14099    
    815.00      -0.56333      -0.20696    
    765.00      -0.35070      -0.72384E-01
    715.00       0.29349      -0.35619E-01
    665.00      -0.82084       0.18117    
    615.00       0.11340      -0.71634E-01
    565.00       0.55487      -0.10190E-01
    515.00       0.60444      -0.61820E-01
    465.00      -0.49091       0.49131E-01
    415.00       0.88515       0.15325E-01
    365.00       0.13886       0.13436E-01
    315.00      -0.86256       0.17320E-02
    265.00       0.33246       0.16880E-02
    215.00       0.32643      -0.93400E-03
    165.00       0.65766      -0.78400E-03
    115.00       0.36408E-01   0.57700E-03
 12,  18
    965.00       0.85858      -0.28621    
    915.00      -0.59407       0.29359    
    865.00      -0.81469E-01   0.89080E-01
    815.00      -0.30479      -0.39095E-01
    765.00       0.24364       0.29472E-01
    715.00      -0.52087       0.21871    
    665.00       0.71990       0.14717    
    615.00      -0.20544       0.11207    
    565.00       0.28497       0.98386E-01
    515.00       0.67624       0.98960E-02
    465.00      -0.64639       0.38340E-02
    415.00      -0.26805       0.28789E-01
    365.00      -0.79459      -0.43590E-02
    315.00       0.14943E-01  -0.22420E-02
    265.00      -0.59700E-03  -0.35880E-02
    215.00       0.25723       0.55100E-03
    165.00      -0.15586      -0.32200E-03
    115.00       0.72137      -0.25800E-03
 13,  18
    965.00       0.68372      -0.45375    
    915.00       0.99321       0.56639    
    865.00      -0.69519      -0.54769E-01
    815.00       0.59307       0.33804    
    765.00      -0.66126       0.98210E-02
    715.00      -0.10161       0.32545    
    665.00       0.89660       0.24118    
    615.00       0.61937      -0.11426    
    565.00       0.10951       0.27357E-01
    515.00       0.13479       0.74251E-01
    465.00      -0.10570       0.73100E-02
    415.00      -0.99528E-01  -0.26550E-01
    365.00      -0.22474       0.13456E-01
    315.00      -0.87805      -0.35760E-02
    265.00       0.37330      -0.12690E-02
    215.00       0.16030      -0.13520E-02
    165.00      -0.25815      -0.11500E-03
    115.00      -0.86703      -0.55300E-03
 14,  18
    965.00      -0.50926      -0.22341    
    915.00       0.18463E-01  -0.14212    
    865.00       0.10104      -0.27626    
    815.00      -0.42528      -0.13740    
    765.00       0.71497       0.27419    
    715.00      -0.58678       0.11558    
    665.00       0.27610       0.72297E-01
    615.00       0.75958      -0.18778E-01
    565.00       0.69210      -0.49141E-01
    515.00       0.60409       0.20620E-01
    465.00       0.87792      -0.46655E-01
    415.00       0.38191E-01   0.15470E-02
    365.00       0.32666       0.28230E-02
    315.00       0.61648E-01  -0.39200E-03
    265.00      -0.93007      -0.10640E-02
    215.00       0.27158E-01  -0.70000E-03
    165.00      -0.36217      -0.23500E-03
    115.00       0.50098       0.53200E-03
 15,  18
    965.00       0.68650      -0.53068    
    915.00       0.54702       0.51586E-01
    865.00       0.55472       0.34009    
    815.00      -0.96617       0.26766    
    765.00       0.29241       0.71812E-01
    715.00       0.51158       0.12398    
    665.00       0.59048       0.23458    
    615.00       0.29079       0.11110    
    565.00      -0.14996      -0.33537E-01
    515.00      -0.15249       0.11141E-01
    465.00      -0.54081       0.14006E-01
    415.00      -0.19153      -0.24600E-01
    365.00       0.79177      -0.72860E-02
    315.00       0.47399       0.28810E-02
    265.00       0.83250      -0.37880E-02
    215.00       0.42576      -0.16950E-02
    165.00       0.14971      -0.59900E-03
    115.00       0.61637       0.17200E-03
 16,  18
    965.00       0.75626       0.58639    
    915.00       0.85032       0.29021    
    865.00       0.82980E-01   0.43204    
    815.00       0.22440       0.20910    
    765.00      -0.46865      -0.52671E-01
    715.00       0.98057      -0.11630    
    665.00      -0.49490      -0.23692    
    615.00       0.56409       0.25913E-01
    565.00       0.40591      -0.42742E-01
    515.00      -0.15594      -0.59240E-01
    465.00       0.24442       0.43760E-02
    415.00       0.79378       0.26758E-01
    365.00       0.20798       0.13388E-01
    315.00       0.29167       0.17230E-02
    265.00       0.26103      -0.12320E-02
    215.00       0.59183E-01   0.72000E-03
    165.00       0.28293      -0.32100E-03
    115.00      -0.55842      -0.95000E-04
 17,  18
    965.00       0.70698       0.49855    
    915.00      -0.61861E-01   0.42440    
    865.00       0.82791       0.54959    
    815.00       0.57129      -0.50452    
    765.00       0.23674      -0.39097E-01
    715.00      -0.36747      -0.60160E-01
    665.00      -0.55352       0.12642    
    615.00       0.43809      -0.65528E-01
    565.00       0.38632       0.95090E-02
    515.00       0.35321      -0.56473E-01
    465.00      -0.47544       0.39795E-01
    415.00       0.91347      -0.15973E-01
    365.00      -0.59521       0.84200E-03
    315.00       0.30385      -0.50370E-02
    265.00      -0.44412      -0.14690E-02
    215.00       0.46312      -0.92600E-03
    165.00       0.56863      -0.40400E-03
    115.00       0.23482       0.25200E-03
 2*18
    965.00      -0.97680       0.24164    
    915.00       0.17802       0.21892    
    865.00      -0.30533       0.12301    
    815.00       0.19910       0.29778    
    765.00      -0.65088       0.80500E-03
    715.00       0.42114      -0.42393E-01
    665.00      -0.45538       0.14821    
    615.00       0.67837      -0.57578E-01
    565.00       0.10797E-01  -0.10070    
    515.00       0.53992      -0.60376E-01
    465.00      -0.17906       0.23451E-01
    415.00      -0.96102      -0.13302E-01
    365.00       0.71042      -0.47100E-03
    315.00      -0.61148      -0.74490E-02
    265.00      -0.53769       0.12280E-02
    215.00       0.19488E-01   0.36500E-03
    165.00      -0.17946      -0.18000E-04
    115.00       0.14538       0.62700E-03
 19,  18
    965.00      -0.69849      -0.55831    
    915.00       0.50510      -0.39990    
    865.00       0.79759       0.22394E-01
    815.00      -0.90044       0.12771E-01
    765.00      -0.29914      -0.71141E-01
    715.00      -0.37795      -0.19219    
    665.00      -0.71880      -0.16138    
    615.00      -0.56947       0.15165    
    565.00      -0.36151      -0.10362    
    515.00      -0.73787      -0.43840E-01
    465.00       0.50833      -0.18996E-01
    415.00       0.60803      -0.18054E-01
    365.00      -0.13353       0.66970E-02
    315.00      -0.29004      -0.72650E-02
    265.00      -0.15494      -0.14500E-02
    215.00      -0.65139E-01   0.15200E-03
    165.00      -0.84494E-01   0.71500E-03
    115.00      -0.11976      -0.12600E-03
 20,  18
    965.00      -0.30087       0.40511    
    915.00      -0.59596E-01   0.47706    
    865.00      -0.40285       0.28629    
    815.00      -0.77130      -0.33442    
    765.00      -0.81254       0.35151    
    715.00       0.61301       0.24956    
    665.00      -0.31684       0.17691    
    615.00       0.49251       0.12814    
    565.00      -0.60901      -0.14486E-01
    515.00      -0.18573      -0.69524E-01
    465.00      -0.51959      -0.15520E-01
    415.00       0.20098      -0.27165E-01
    365.00      -0.70032      -0.75450E-02
    315.00       0.60738      -0.33100E-02
    265.00       0.49639       0.29710E-02
    215.00       0.42002      -0.14670E-02
    165.00       0.58024       0.55400E-03
    115.00      -0.22515      -0.63900E-03
 21,  18
    965.00       0.29727      -0.11956    
    915.00      -0.81066       0.15724    
    865.00      -0.55452       0.53706    
    815.00      -0.52450E-02   0.12730E-02
    765.00       0.24491E-01  -0.41570E-02
    715.00       0.56194       0.27504    
    665.00       0.87606      -0.16136    
    615.00      -0.42420      -0.90343E-01
    565.00      -0.36333      -0.39330E-01
    515.00      -0.11020      -0.44218E-01
    465.00      -0.39256       0.45955E-01
    415.00       0.40191      -0.51570E-02
    365.00      -0.27474       0.14020E-02
    315.00       0.52713      -0.16950E-02
    265.00      -0.82560       0.35730E-02
    215.00       0.17098      -0.26300E-03
    165.00       0.42052      -0.50700E-03
    115.00      -0.20905      -0.26800E-03
 22,  18
    965.00       0.97465       0.61078    
    915.00      -0.53300E-02  -0.13160    
    865.00       0.25540       0.25600    
    815.00      -0.15901      -0.38992    
    765.00       0.64112E-01  -0.43226    
    715.00       0.77844       0.10408    
    665.00      -0.73565       0.17172    
    615.00       0.14372       0.94145E-01
    565.00       0.67517      -0.26362E-01
    515.00       0.85740E-02  -0.10354E-01
    465.00      -0.31637       0.27135E-01
    415.00       0.11221       0.30120E-01
    365.00       0.71890       0.15129E-01
    315.00      -0.11859E-01   0.32020E-02
    265.00       0.13297E-01  -0.38750E-02
    215.00      -0.32684       0.40000E-05
    165.00      -0.37669      -0.16000E-03
    115.00       0.36932      -0.20600E-03
 23,  18
    965.00      -0.49060      -0.29883    
    915.00      -0.62183      -0.45033E-01
    865.00      -0.13939      -0.18867    
    815.00      -0.51106       0.35222    
    765.00       0.58794E-01   0.43033    
    715.00      -0.38390      -0.27614    
    665.00       0.70872      -0.50289E-01
    615.00       0.93705       0.14495    
    565.00      -0.81926E-01   0.88493E-01
    515.00       0.23673       0.19863E-01
    465.00      -0.57860      -0.43693E-01
    415.00       0.61903      -0.31757E-01
    365.00       0.79942      -0.13522E-01
    315.00      -0.84852       0.33930E-02
    265.00       0.32825       0.20710E-02
    215.00      -0.40977      -0.17210E-02
    165.00       0.18714      -0.68300E-03
    115.00       0.18263       0.95000E-04
 24,  18
    965.00      -0.90059      -0.32089    
    915.00      -0.19905       0.17407    
    865.00      -0.21086      -0.17361    
    815.00      -0.50627       0.33344    
    765.00       0.83445      -0.58355E-01
    715.00      -0.96288       0.58620E-02
    665.00      -0.36733      -0.78691E-01
    615.00       0.29885       0.84345E-01
    565.00      -0.35572      -0.10527E-01
    515.00       0.76714      -0.26448E-01
    465.00      -0.49040       0.32239E-01
    415.00      -0.60961      -0.14811E-01
    365.00      -0.10594      -0.65950E-02
    315.00      -0.12767E-01   0.33170E-02
    265.00      -0.21601       0.14430E-02
    215.00       0.55676       0.12030E-02
    165.00      -0.74276E-01  -0.86000E-03
    115.00      -0.62067E-01  -0.85000E-04
 25,  18
    965.00       0.14864E-01  -0.15048    
    915.00      -0.80076      -0.36924    
    865.00       0.60840       0.49441E-01
    815.00      -0.36166E-01  -0.44958    
    765.00      -0.96790      -0.43449    
    715.00      -0.20629       0.19869    
    665.00      -0.33645       0.77915E-01
    615.00       0.73468      -0.37762E-01
    565.00      -0.58525      -0.86481E-01
    515.00      -0.77561      -0.21487E-01
    465.00       0.32149       0.31243E-01
    415.00       0.14706      -0.18941E-01
    365.00      -0.42100E-02  -0.12969E-01
    315.00       0.58545       0.37460E-02
    265.00       0.45280      -0.19120E-02
    215.00       0.48091      -0.49900E-03
    165.00       0.49130E-01  -0.80900E-03
    115.00       0.20281       0.20800E-03
 26,  18
    965.00       0.45632       0.77316E-01
    915.00       0.31008      -0.34676    
    865.00       0.22722       0.13523    
    815.00       0.17986       0.40560E-02
    765.00      -0.99547E-01  -0.43479    
    715.00      -0.34340       0.24632    
    665.00      -0.84579E-01   0.22060    
    615.00       0.50102       0.14108    
    565.00      -0.46492      -0.78259E-01
    515.00      -0.21022       0.56140E-01
    465.00      -0.13903       0.26144E-01
    415.00       0.28200       0.25144E-01
    365.00      -0.22579      -0.17141E-01
    315.00      -0.97906E-01  -0.25020E-02
    265.00      -0.75306       0.54700E-03
    215.00       0.29667      -0.15700E-03
    165.00       0.66704E-01  -0.69000E-03
    115.00       0.21212       0.16000E-03
 27,  18
    965.00      -0.52819       0.24107E-01
    915.00       0.66184       0.36525    
    865.00       0.25706       0.42134    
    815.00      -0.15402      -0.15434    
    765.00      -0.47636      -0.36094    
    715.00       0.10202       0.68215E-01
    665.00      -0.52360E-02   0.19811    
    615.00      -0.91425      -0.64348E-01
    565.00       0.70115      -0.10756    
    515.00       0.72524      -0.25309E-01
    465.00       0.54070       0.47280E-02
    415.00       0.35376      -0.28238E-01
    365.00      -0.80761       0.10970E-02
    315.00      -0.24476      -0.76510E-02
    265.00      -0.44156       0.21900E-02
    215.00       0.74681E-01  -0.15570E-02
    165.00       0.69513       0.63200E-03
    115.00       0.78058      -0.21000E-04
 28,  18
    965.00      -0.95912       0.63222    
    915.00       0.54377      -0.43960E-01
    865.00       0.24606       0.99943E-01
    815.00       0.25669       0.17005E-01
    765.00       0.16459E-01   0.44752    
    715.00      -0.21476      -0.10673    
    665.00      -0.14249       0.91097E-01
    615.00      -0.33626E-01   0.58895E-01
    565.00       0.31393E-01   0.37110E-02
    515.00      -0.99641       0.54133E-01
    465.00      -0.94860E-01  -0.27327E-01
    415.00      -0.14530       0.30186E-01
    365.00      -0.69940E-01   0.75940E-02
    315.00      -0.47416      -0.34760E-02
    265.00       0.13772       0.24400E-02
    215.00      -0.88136       0.13490E-02
    165.00       0.69406      -0.41400E-03
    115.00       0.52517       0.27600E-03
 29,  18
    965.00       0.46589      -0.38174    
    915.00       0.22304       0.36028    
    865.00      -0.54337      -0.43684    
    815.00      -0.90846      -0.45106E-01
    765.00      -0.69728      -0.11379    
    715.00       0.87256       0.57749E-01
    665.00      -0.56429       0.21380    
    615.00       0.33768      -0.14168    
    565.00      -0.57118E-01  -0.10347    
    515.00      -0.10524       0.33131E-01
    465.00       0.82854      -0.49089E-01
    415.00      -0.52656       0.97670E-02
    365.00       0.31384       0.12884E-01
    315.00       0.74844       0.12450E-02
    265.00      -0.37287E-01   0.17080E-02
    215.00       0.28127       0.16760E-02
    165.00      -0.16815       0.64200E-03
    115.00      -0.11143      -0.63700E-03
 30,  18
    965.00      -0.27408       0.51063E-01
    915.00       0.19795      -0.43100E-01
    865.00       0.18026       0.32146    
    815.00      -0.92794       0.48954    
    765.00       0.57205      -0.23113    
    715.00      -0.16017       0.91710E-01
    665.00       0.73581       0.23478    
    615.00       0.40671      -0.12286    
    565.00      -0.28518      -0.13567E-01
    515.00      -0.94022E-01   0.10560E-02
    465.00      -0.30703      -0.43210E-01
    415.00       0.24118      -0.93070E-02
    365.00      -0.46120       0.12330E-01
    315.00       0.50952       0.80000E-04
    265.00       0.55466E-01   0.36090E-02
    215.00      -0.75216      -0.97900E-03
    165.00       0.42711      -0.35000E-03
    115.00      -0.42263      -0.16800E-03
 31,  18
    965.00      -0.35001       0.27806    
    915.00       0.35666      -0.91801E-01
    865.00      -0.82857      -0.17653    
    815.00      -0.76164       0.89237E-01
    765.00       0.62399       0.18230    
    715.00       0.84580      -0.33906E-01
    665.00      -0.15986      -0.24503    
    615.00       0.20541      -0.47586E-01
    565.00       0.77415       0.23399E-01
    515.00      -0.78931       0.41162E-01
    465.00      -0.25130      -0.23356E-01
    415.00      -0.14855      -0.20760E-01
    365.00      -0.23226      -0.86570E-02
    315.00       0.60673E-01   0.78590E-02
    265.00       0.22181       0.50000E-03
    215.00      -0.22805      -0.96900E-03
    165.00      -0.40180      -0.67900E-03
    115.00       0.46655       0.27600E-03
 32,  18
    965.00      -0.12585      -0.60017    
    915.00      -0.91876      -0.13316    
    865.00       0.25384       0.16027    
    815.00      -0.21912      -0.95800E-02
    765.00       0.42649E-01  -0.22498    
    715.00       0.55695E-01  -0.29241    
    665.00       0.58918E-01  -0.78323E-01
    615.00      -0.39892       0.61842E-01
    565.00      -0.63591       0.39230E-02
    515.00       0.55464      -0.78298E-01
    465.00       0.97692      -0.52290E-02
    415.00       0.50370E-01   0.13810E-01
    365.00      -0.65294       0.13337E-01
    315.00       0.15580E-01   0.79320E-02
    265.00      -0.80598      -0.16280E-02
    215.00      -0.11769       0.56500E-03
    165.00       0.20484      -0.64200E-03
    115.00      -0.23203E-01   0.64000E-03
 33,  18
    965.00       0.54573       0.18360    
    915.00       0.51869      -0.13705    
    865.00       0.10089       0.38661E-01
    815.00      -0.71738       0.24151E-01
    765.00       0.89255       0.30845    
    715.00      -0.21414      -0.15148    
    665.00       0.31992       0.19015    
    615.00       0.64138       0.11209    
    565.00      -0.36015      -0.75818E-01
    515.00      -0.89247      -0.57271E-01
    465.00       0.65189       0.45591E-01
    415.00       0.63853       0.18858E-01
    365.00      -0.31954      -0.84500E-02
    315.00      -0.13837       0.23330E-02
    265.00      -0.64757       0.59100E-03
    215.00      -0.12667E-01   0.13830E-02
    165.00       0.60599      -0.22700E-03
    115.00       0.82386       0.27600E-03
 34,  18
    965.00       0.34724E-01  -0.20285    
    915.00       0.51566       0.32729    
    865.00      -0.54097      -0.43518    
    815.00       0.98628E-01   0.40453    
    765.00       0.88123      -0.22510    
    715.00       0.94283      -0.65956E-01
    665.00      -0.38817      -0.59314E-01
    615.00       0.78533       0.85084E-01
    565.00      -0.48218       0.10058E-01
    515.00      -0.53991      -0.35594E-01
    465.00       0.11866      -0.33553E-01
    415.00       0.29292      -0.18634E-01
    365.00      -0.28507      -0.17790E-02
    315.00      -0.60244      -0.57150E-02
    265.00      -0.29984E-01   0.38220E-02
    215.00       0.20315       0.39000E-04
    165.00       0.18965       0.20600E-03
    115.00      -0.74105      -0.11300E-03
 35,  18
    965.00       0.79835      -0.20817E-01
    915.00      -0.11511      -0.48093    
    865.00      -0.41044       0.44634E-01
    815.00       0.89823      -0.34355    
    765.00      -0.32386      -0.23179    
    715.00       0.23021      -0.16720    
    665.00      -0.84478E-01  -0.44719E-01
    615.00       0.43158      -0.35858E-01
    565.00      -0.47710       0.25653E-01
    515.00       0.26690      -0.37762E-01
    465.00       0.89182      -0.10045E-01
    415.00       0.26730      -0.18592E-01
    365.00       0.21293       0.39990E-02
    315.00      -0.37071      -0.47660E-02
    265.00      -0.34321E-01  -0.34560E-02
    215.00       0.45375      -0.11160E-02
    165.00      -0.56703       0.29000E-03
    115.00       0.57828       0.48100E-03
 36,  18
    965.00      -0.20407       0.18835    
    915.00       0.38207      -0.13032    
    865.00       0.54375      -0.69278E-01
    815.00      -0.54126      -0.23494    
    765.00       0.32843       0.14210    
    715.00      -0.49734      -0.27759    
    665.00      -0.99524      -0.67909E-01
    615.00      -0.85974       0.12623    
    565.00       0.37381       0.18815E-01
    515.00       0.67122       0.51045E-01
    465.00      -0.65476      -0.23890E-02
    415.00       0.28324       0.12653E-01
    365.00      -0.48785E-01  -0.15882E-01
    315.00      -0.54391       0.19840E-02
    265.00      -0.58981       0.55100E-03
    215.00      -0.55488       0.11420E-02
    165.00       0.43791      -0.78700E-03
    115.00      -0.99511      -0.36900E-03
 37,  18
    965.00       0.18832       0.18087    
    915.00      -0.97129      -0.15257    
    865.00      -0.39374       0.38020    
    815.00       0.67852      -0.35813    
    765.00      -0.82052      -0.41227    
    715.00      -0.43552      -0.34693    
    665.00      -0.63383       0.21048    
    615.00      -0.52474      -0.11152    
    565.00      -0.61876       0.31631E-01
    515.00      -0.67035      -0.95300E-02
    465.00       0.64431      -0.34140E-02
    415.00      -0.11709       0.28673E-01
    365.00      -0.55983      -0.16038E-01
    315.00       0.98811      -0.46060E-02
    265.00      -0.63559E-01   0.12110E-02
    215.00       0.87639       0.14670E-02
    165.00       0.36866       0.77000E-04
    115.00       0.36713      -0.12900E-03
 38,  18
    965.00       0.76994      -0.30706E-01
    915.00       0.48015      -0.19548    
    865.00       0.39273      -0.74022E-01
    815.00       0.75348E-01   0.25256    
    765.00      -0.19289       0.29689E-01
    715.00      -0.45976      -0.33329    
    665.00      -0.34539E-01  -0.28351E-01
    615.00       0.64633       0.84385E-01
    565.00       0.27806      -0.98779E-01
    515.00       0.76886E-01   0.76951E-01
    465.00       0.66414      -0.14730E-02
    415.00      -0.39891      -0.17400E-02
    365.00      -0.64320       0.51690E-02
    315.00       0.72266      -0.49030E-02
    265.00      -0.88911      -0.16930E-02
    215.00      -0.47886       0.16230E-02
    165.00      -0.41156       0.80000E-04
    115.00      -0.51862       0.53400E-03
 39,  18
    965.00      -0.18958       0.47900    
    915.00       0.63187       0.22620    
    865.00      -0.94931      -0.11149    
    815.00      -0.40213       0.26793    
    765.00      -0.63397       0.10455E-01
    715.00       0.98795E-01  -0.19214    
    665.00       0.40257      -0.61710E-01
    615.00      -0.86487       0.13108    
    565.00      -0.38357       0.16872E-01
    515.00      -0.45127       0.37100E-03
    465.00      -0.28251       0.76100E-03
    415.00       0.41277      -0.11378E-01
    365.00      -0.40790       0.97770E-02
    315.00      -0.59766E-01   0.57690E-02
    265.00      -0.55057       0.28320E-02
    215.00       0.19700      -0.84700E-03
    165.00      -0.42795       0.57000E-04
    115.00       0.23002       0.21100E-03
 40,  18
    965.00      -0.43291      -0.10716    
    915.00      -0.18823       0.42090    
    865.00       0.47502      -0.31327    
    815.00      -0.49790       0.17595    
    765.00       0.53325      -0.30801    
    715.00      -0.31798      -0.22871    
    665.00       0.47041      -0.41526E-01
    615.00       0.87235E-01  -0.11469    
    565.00      -0.12107       0.95310E-01
    515.00       0.97103       0.25006E-01
    465.00       0.44374      -0.21566E-01
    415.00       0.85911      -0.15408E-01
    365.00       0.38547      -0.90800E-03
    315.00      -0.58437      -0.37090E-02
    265.00      -0.43800E-02   0.39120E-02
    215.00       0.12100       0.13390E-02
    165.00       0.18678      -0.45400E-03
    115.00      -0.30312E-01  -0.34200E-03
 41,  18
    965.00      -0.28202       0.57583    
    915.00       0.12700E-03  -0.86145E-01
    865.00      -0.26311      -0.25454    
    815.00      -0.46772       0.79375E-01
    765.00       0.50012       0.85557E-01
    715.00       0.82004       0.10759    
    665.00       0.49047      -0.22420E-02
    615.00      -0.68773      -0.14585    
    565.00       0.18171       0.64944E-01
    515.00      -0.72382      -0.23762E-01
    465.00      -0.30988E-01  -0.29532E-01
    415.00       0.89063      -0.27556E-01
    365.00       0.21733      -0.22440E-02
    315.00       0.69000      -0.48600E-02
    265.00       0.21651      -0.17750E-02
    215.00      -0.23534      -0.12410E-02
    165.00      -0.33311      -0.25000E-03
    115.00      -0.61621      -0.41500E-03
 42,  18
    965.00       0.92852       0.23765    
    915.00       0.58680E-02  -0.47296    
    865.00      -0.26970       0.44019    
    815.00       0.63346       0.11887    
    765.00       0.27615       0.35489    
    715.00       0.52288       0.13362    
    665.00      -0.34436       0.78821E-01
    615.00      -0.39327      -0.13858    
    565.00      -0.89888      -0.27907E-01
    515.00      -0.61063E-01  -0.54118E-01
    465.00      -0.23787       0.47214E-01
    415.00       0.10018      -0.91320E-02
    365.00      -0.76227       0.14134E-01
    315.00       0.49584       0.38840E-02
    265.00      -0.50662       0.51300E-03
    215.00       0.35233       0.10590E-02
    165.00      -0.46570E-02   0.72600E-03
    115.00       0.54558      -0.36900E-03
 43,  18
    965.00       0.66513E-01   0.48499    
    915.00      -0.42977       0.35083    
    865.00       0.93180      -0.12898    
    815.00      -0.28775      -0.35445    
    765.00      -0.79126       0.11791    
    715.00      -0.83266       0.20970E-01
    665.00      -0.76667      -0.83000E-02
    615.00      -0.15142      -0.11643    
    565.00       0.32197      -0.94250E-01
    515.00       0.39528       0.65437E-01
    465.00      -0.64584       0.13413E-01
    415.00       0.56323      -0.29885E-01
    365.00      -0.20798      -0.11652E-01
    315.00       0.32663       0.71680E-02
    265.00       0.73808       0.24570E-02
    215.00      -0.57183      -0.16340E-02
    165.00       0.20610       0.43700E-03
    115.00       0.69920E-02  -0.62300E-03
 44,  18
    965.00       0.36761       0.10975    
    915.00      -0.25797E-01  -0.52578    
    865.00       0.92209      -0.50118    
    815.00       0.51929       0.37456    
    765.00       0.53580      -0.22095    
    715.00       0.66501      -0.18865    
    665.00      -0.74547E-01   0.16788    
    615.00       0.67336      -0.15390    
    565.00      -0.63815       0.99991E-01
    515.00      -0.15625      -0.16057E-01
    465.00      -0.49513       0.48673E-01
    415.00       0.15233       0.90000E-02
    365.00      -0.24482       0.10664E-01
    315.00       0.51150      -0.78610E-02
    265.00       0.85782       0.30310E-02
    215.00       0.30178      -0.40000E-04
    165.00       0.66822       0.16800E-03
    115.00      -0.63270      -0.51000E-03
 45,  18
    965.00      -0.12536       0.91898E-01
    915.00      -0.17410E-02  -0.22249    
    865.00      -0.38317       0.47741    
    815.00       0.21845       0.29230    
    765.00      -0.42434       0.76313E-01
    715.00      -0.63245      -0.79031E-01
    665.00       0.40176       0.18655    
    615.00       0.46010       0.10785    
    565.00       0.44640       0.50930E-01
    515.00       0.45536       0.51373E-01
    465.00      -0.65391       0.45634E-01
    415.00       0.73582      -0.27219E-01
    365.00      -0.58073       0.22280E-02
    315.00       0.20074       0.33050E-02
    265.00      -0.13656      -0.31790E-02
    215.00      -0.97322      -0.66000E-03
    165.00      -0.13714      -0.57700E-03
    115.00      -0.45921      -0.42700E-03
 46,  18
    965.00       0.26636      -0.52886    
    915.00       0.69535      -0.17951    
    865.00      -0.37045       0.29220    
    815.00      -0.94265      -0.16297    
    765.00       0.34711       0.47014E-01
    715.00      -0.35138      -0.68791E-01
    665.00       0.42559      -0.13593    
    615.00       0.78875      -0.13126    
    565.00       0.22396      -0.26525E-01
    515.00      -0.54853       0.49542E-01
    465.00      -0.24574       0.50616E-01
    415.00      -0.14763      -0.10473E-01
    365.00       0.40814       0.93520E-02
    315.00      -0.38484      -0.36250E-02
    265.00      -0.24210      -0.27910E-02
    215.00      -0.99882      -0.13060E-02
    165.00      -0.80181       0.28100E-03
    115.00      -0.61480E-02   0.41600E-03
 47,  18
    965.00       0.59453E-01  -0.39940    
    915.00       0.27410E-02  -0.32990    
    865.00      -0.13334      -0.41438    
    815.00       0.51085       0.41665    
    765.00      -0.37051      -0.43299    
    715.00       0.45825      -0.24770    
    665.00      -0.56263      -0.19131    
    615.00      -0.49484E-01  -0.58568E-01
    565.00      -0.52445       0.78326E-01
    515.00       0.15102      -0.42520E-01
    465.00      -0.58626       0.23940E-02
    415.00      -0.38190E-02   0.16629E-01
    365.00       0.81987       0.11376E-01
    315.00       0.16042      -0.23090E-02
    265.00       0.39716      -0.38860E-02
    215.00      -0.43487      -0.17620E-02
    165.00      -0.19045      -0.12500E-03
    115.00      -0.54044       0.16100E-03
 48,  18
    965.00       0.35426       0.30986    
    915.00       0.39848       0.50727E-01
    865.00      -0.42302      -0.45557    
    815.00      -0.14134       0.46431    
    765.00       0.40251E-01   0.15761    
    715.00       0.79956E-01   0.15612    
    665.00       0.47130      -0.87309E-01
    615.00       0.26063       0.12998    
    565.00      -0.11976       0.91160E-02
    515.00       0.15181       0.70263E-01
    465.00       0.78414       0.33772E-01
    415.00       0.35794       0.86890E-02
    365.00      -0.12283E-01   0.16213E-01
    315.00       0.44907      -0.49600E-03
    265.00      -0.44936      -0.16290E-02
    215.00      -0.21128       0.26000E-04
    165.00      -0.57119      -0.42600E-03
    115.00       0.10306      -0.15500E-03
 49,  18
    965.00      -0.61070      -0.11181    
    915.00      -0.72528      -0.11513    
    865.00       0.55893       0.58051E-01
    815.00       0.44751       0.48324    
    765.00      -0.12184      -0.22711    
    715.00       0.87497       0.20251    
    665.00      -0.89888       0.15722    
    615.00      -0.59741      -0.14989    
    565.00      -0.39402       0.62763E-01
    515.00       0.81073       0.54367E-01
    465.00      -0.32568       0.46350E-01
    415.00       0.49196      -0.11185E-01
    365.00      -0.12736       0.17709E-01
    315.00       0.51844       0.83650E-02
    265.00       0.61770       0.57500E-03
    215.00      -0.10766      -0.10810E-02
    165.00       0.29090E-01   0.83400E-03
    115.00       0.15650       0.19300E-03
 50,  18
    965.00      -0.27849       0.58092    
    915.00      -0.67422      -0.36044    
    865.00      -0.75027      -0.44815    
    815.00      -0.40480       0.33378    
    765.00       0.44829      -0.22057    
    715.00       0.83530      -0.28332    
    665.00       0.64492       0.12200    
    615.00       0.57410      -0.89627E-01
    565.00      -0.69929      -0.58448E-01
    515.00      -0.30623      -0.39602E-01
    465.00       0.73115      -0.27502E-01
    415.00      -0.83942      -0.23340E-01
    365.00      -0.58850      -0.16120E-01
    315.00      -0.26611      -0.58500E-03
    265.00      -0.53596E-01   0.27310E-02
    215.00       0.26716       0.76500E-03
    165.00       0.31930E-01  -0.96000E-04
    115.00       0.57136       0.41900E-03
 51,  18
    965.00       0.17397      -0.52184    
    915.00      -0.20649      -0.58781    
    865.00       0.38090       0.33996    
    815.00      -0.83232      -0.11453E-01
    765.00       0.56989       0.42260    
    715.00       0.73055       0.22996    
    665.00       0.66073E-01   0.62560E-02
    615.00       0.74471      -0.86321E-01
    565.00      -0.56978       0.13583E-01
    515.00       0.84810      -0.63750E-02
    465.00      -0.35052      -0.36718E-01
    415.00       0.35573      -0.55720E-02
    365.00      -0.30644       0.15362E-01
    315.00      -0.82943      -0.42430E-02
    265.00      -0.24487       0.26970E-02
    215.00       0.79044       0.58000E-03
    165.00       0.66019      -0.75100E-03
    115.00       0.19450E-01  -0.51600E-03
 52,  18
    965.00      -0.42076       0.15275    
    915.00       0.42845       0.29120    
    865.00       0.21452      -0.16332    
    815.00      -0.66840      -0.14982    
    765.00      -0.47886       0.21900    
    715.00       0.62965      -0.23110E-01
    665.00       0.13365       0.14072    
    615.00      -0.48843E-01   0.12508    
    565.00      -0.35805       0.17048E-01
    515.00      -0.88071E-01  -0.46954E-01
    465.00      -0.25109      -0.13220E-01
    415.00      -0.42962       0.13079E-01
    365.00       0.42396       0.81670E-02
    315.00      -0.75096      -0.55460E-02
    265.00       0.75437       0.31250E-02
    215.00      -0.27060       0.15160E-02
    165.00       0.36653      -0.65100E-03
    115.00       0.74122E-01   0.69000E-04
 53,  18
    965.00       0.20531       0.64948    
    915.00       0.63607      -0.29741    
    865.00      -0.24743      -0.30089    
    815.00       0.94678       0.72036E-01
    765.00      -0.40777       0.10309    
    715.00       0.44987      -0.18862    
    665.00       0.62491      -0.77314E-01
    615.00      -0.46259       0.11425    
    565.00      -0.90117       0.75541E-01
    515.00       0.97544       0.41457E-01
    465.00       0.15575       0.28281E-01
    415.00      -0.24828       0.27651E-01
    365.00       0.75980      -0.11000E-03
    315.00       0.13583E-01   0.62690E-02
    265.00      -0.15789       0.23600E-02
    215.00      -0.48187      -0.10320E-02
    165.00      -0.38628E-01   0.70000E-04
    115.00       0.21045       0.41000E-03
 54,  18
    965.00      -0.85540       0.34231    
    915.00       0.54987       0.35633    
    865.00       0.54126      -0.26247    
    815.00      -0.86391      -0.94531E-01
    765.00       0.57305       0.42199    
    715.00      -0.27702      -0.29009E-01
    665.00       0.73334      -0.24695    
    615.00       0.32831      -0.78949E-01
    565.00       0.86684       0.55465E-01
    515.00       0.41551      -0.65012E-01
    465.00      -0.18848      -0.30733E-01
    415.00      -0.54477      -0.24608E-01
    365.00       0.19076       0.14930E-01
    315.00      -0.18380       0.35040E-02
    265.00      -0.99636       0.19160E-02
    215.00       0.20022E-01  -0.16990E-02
    165.00      -0.23049E-01   0.69900E-03
    115.00       0.33118      -0.21400E-03
 55,  18
    965.00       0.45784      -0.46086    
    915.00      -0.18300       0.49243E-01
    865.00      -0.34814       0.41635E-01
    815.00       0.12774      -0.46588E-01
    765.00       0.18002E-01   0.44348    
    715.00       0.34600      -0.19679    
    665.00       0.50499      -0.23541    
    615.00      -0.69510       0.12208    
    565.00      -0.84478       0.10305    
    515.00       0.97568       0.21087E-01
    465.00      -0.73030      -0.46020E-01
    415.00      -0.30144       0.24427E-01
    365.00       0.18213      -0.15638E-01
    315.00       0.55869      -0.31700E-03
    265.00       0.26760       0.36200E-03
    215.00       0.12842       0.14060E-02
    165.00       0.10778       0.66200E-03
    115.00       0.13503      -0.70000E-05
 56,  18
    965.00       0.80436       0.51337    
    915.00       0.97472       0.27146E-01
    865.00       0.44684      -0.60016E-01
    815.00       0.55272       0.37955    
    765.00       0.51397      -0.19175    
    715.00       0.40916      -0.15594    
    665.00       0.64823      -0.76235E-01
    615.00       0.65636      -0.90224E-01
    565.00      -0.81128       0.80061E-01
    515.00      -0.65859      -0.19710E-01
    465.00      -0.26556       0.96760E-02
    415.00       0.34392       0.19320E-02
    365.00       0.97817      -0.14102E-01
    315.00       0.51989       0.82730E-02
    265.00      -0.91029       0.38430E-02
    215.00       0.94893       0.12220E-02
    165.00      -0.46394       0.37000E-04
    115.00       0.84616       0.49000E-03
 57,  18
    965.00      -0.52648       0.63388E-01
    915.00      -0.47306      -0.29628    
    865.00       0.26704      -0.20910    
    815.00       0.20464E-01   0.48341    
    765.00       0.96121       0.30766    
    715.00      -0.51599       0.99890E-02
    665.00      -0.47205      -0.98852E-01
    615.00      -0.30283E-01   0.85570E-01
    565.00       0.91069E-01   0.10612    
    515.00       0.14388      -0.30767E-01
    465.00      -0.31312       0.17146E-01
    415.00      -0.96150E-01   0.21913E-01
    365.00       0.68743      -0.16254E-01
    315.00       0.13139       0.71480E-02
    265.00      -0.48368      -0.40000E-04
    215.00       0.42827       0.52100E-03
    165.00      -0.41646      -0.61900E-03
    115.00       0.90331       0.59200E-03
 58,  18
    965.00       0.91683E-01  -0.54917    
    915.00      -0.56387       0.21603    
    865.00      -0.41087E-01   0.51525    
    815.00      -0.30364E-01  -0.34733E-01
    765.00      -0.10136       0.32258    
    715.00      -0.40091       0.15692    
    665.00      -0.46703       0.31343E-01
    615.00      -0.15035E-01  -0.12619    
    565.00       0.29343      -0.71621E-01
    515.00       0.22544       0.24203E-01
    465.00      -0.68486      -0.51386E-01
    415.00       0.39643       0.99290E-02
    365.00       0.26976       0.17487E-01
    315.00       0.37805       0.57090E-02
    265.00      -0.27807       0.56000E-04
    215.00      -0.36785       0.15010E-02
    165.00       0.14975      -0.83900E-03
    115.00      -0.67432      -0.16700E-03
 59,  18
    965.00      -0.70628      -0.65245    
    915.00      -0.18076       0.50029    
    865.00      -0.37226E-01  -0.47173E-01
    815.00       0.14319       0.16038E-01
    765.00       0.84709       0.30454    
    715.00       0.47759      -0.16680    
    665.00       0.45117       0.86882E-01
    615.00      -0.20287      -0.88520E-01
    565.00      -0.79576      -0.55742E-01
    515.00      -0.74005       0.17190E-02
    465.00       0.52002      -0.38899E-01
    415.00       0.15198      -0.74080E-02
    365.00       0.40413      -0.17358E-01
    315.00      -0.49485      -0.48960E-02
    265.00      -0.40955       0.38960E-02
    215.00       0.51384       0.47300E-03
    165.00       0.17195       0.76000E-04
    115.00      -0.57217       0.26800E-03
 60,  18
    965.00      -0.49789      -0.64720    
    915.00       0.73745E-01   0.43104    
    865.00       0.37060E-01  -0.32710    
    815.00       0.52048      -0.25876    
    765.00       0.29597       0.27369    
    715.00      -0.80991      -0.31527    
    665.00      -0.16884       0.38485E-01
    615.00      -0.50712       0.29959E-01
    565.00      -0.99101E-01   0.60840E-02
    515.00      -0.96136      -0.29390E-01
    465.00       0.41715      -0.47338E-01
    415.00       0.78280       0.27616E-01
    365.00      -0.25146      -0.31260E-02
    315.00      -0.82653      -0.52420E-02
    265.00       0.44176      -0.19990E-02
    215.00       0.55841      -0.11330E-02
    165.00      -0.34658       0.44000E-04
    115.00      -0.32351       0.60700E-03
 61,  18
    965.00      -0.20944       0.10346    
    915.00      -0.39904      -0.25953    
    865.00      -0.63921      -0.36530    
    815.00       0.51847E-01  -0.46920    
    765.00      -0.44964      -0.16338    
    715.00      -0.40768      -0.12353E-01
    665.00       0.26831       0.45537E-01
    615.00      -0.89489      -0.16159    
    565.00      -0.82130       0.59558E-01
    515.00       0.48344      -0.72983E-01
    465.00       0.18703       0.45998E-01
    415.00       0.14871       0.16814E-01
    365.00       0.54357       0.16408E-01
    315.00       0.98679      -0.49530E-02
    265.00      -0.74090E-01   0.38710E-02
    215.00      -0.26947      -0.56500E-03
    165.00      -0.95474      -0.52500E-03
    115.00       0.23556E-01   0.60900E-03
 62,  18
    965.00      -0.24951      -0.23099    
    915.00       0.75586       0.20127    
    865.00      -0.19502       0.39378    
    815.00       0.20495      -0.24011    
    765.00      -0.27230      -0.21675    
    715.00       0.69209       0.11652    
    665.00       0.34974E-01   0.68173E-01
    615.00      -0.15943      -0.15806    
    565.00      -0.94093      -0.73545E-01
    515.00      -0.31376      -0.78185E-01
    465.00       0.17408       0.38900E-01
    415.00       0.62498      -0.15334E-01
    365.00      -0.35285      -0.92940E-02
    315.00      -0.10168       0.43660E-02
    265.00      -0.76298E-01   0.31140E-02
    215.00      -0.24022      -0.15740E-02
    165.00      -0.43266      -0.54100E-03
    115.00      -0.54276       0.31900E-03
 63,  18
    965.00      -0.21007       0.29284    
    915.00       0.51294      -0.50104    
    865.00       0.84340E-01   0.60958E-01
    815.00      -0.86275       0.44258    
    765.00       0.99919      -0.43531    
    715.00      -0.76575      -0.32884    
    665.00      -0.12281      -0.18348    
    615.00      -0.58638       0.15883    
    565.00      -0.94531       0.15602E-01
    515.00      -0.33546      -0.12443E-01
    465.00      -0.41364       0.29903E-01
    415.00       0.12941       0.69210E-02
    365.00      -0.95883E-01   0.15990E-01
    315.00      -0.64062      -0.24990E-02
    265.00      -0.90840      -0.74400E-03
    215.00       0.50478       0.21900E-03
    165.00      -0.61739       0.81500E-03
    115.00      -0.26434       0.60000E-05
 64,  18
    965.00       0.17869       0.42858    
    915.00      -0.15890      -0.32032E-01
    865.00      -0.19553      -0.51020    
    815.00      -0.60623       0.47075    
    765.00       0.95166      -0.34269    
    715.00      -0.57360      -0.29590    
    665.00       0.20861      -0.17810    
    615.00      -0.11309      -0.14702E-01
    565.00      -0.63341      -0.32470E-02
    515.00       0.19821      -0.52931E-01
    465.00      -0.26340       0.26300E-02
    415.00      -0.58397       0.64060E-02
    365.00      -0.58733      -0.13346E-01
    315.00      -0.32113      -0.65140E-02
    265.00       0.59389E-01   0.30580E-02
    215.00      -0.49420E-02   0.79400E-03
    165.00       0.50305       0.35900E-03
    115.00       0.64451       0.11400E-03
 65,  18
    965.00      -0.33699       0.28837    
    915.00       0.44386      -0.54896    
    865.00       0.74829       0.17916    
    815.00      -0.30184       0.25151    
    765.00      -0.61523      -0.20404    
    715.00       0.99037       0.12140    
    665.00      -0.14174      -0.23250E-02
    615.00      -0.12630       0.12925    
    565.00       0.28141       0.96342E-01
    515.00       0.50421E-01   0.45357E-01
    465.00      -0.12013      -0.35734E-01
    415.00      -0.94892      -0.28437E-01
    365.00       0.57436E-01   0.42270E-02
    315.00      -0.27006      -0.80250E-02
    265.00      -0.96352       0.15010E-02
    215.00       0.16695      -0.10800E-03
    165.00      -0.45464      -0.88500E-03
    115.00      -0.32035      -0.14200E-03
 66,  18
    965.00      -0.79653       0.19415    
    915.00       0.62833      -0.19194    
    865.00       0.75869       0.44537    
    815.00       0.71303       0.49622    
    765.00       0.82824      -0.60080E-01
    715.00      -0.36463       0.31579    
    665.00       0.56138      -0.43440E-01
    615.00      -0.85357      -0.80063E-01
    565.00       0.86483      -0.47300E-02
    515.00      -0.58465       0.73506E-01
    465.00       0.92302E-01  -0.51567E-01
    415.00       0.58954      -0.10512E-01
    365.00      -0.25537      -0.15300E-03
    315.00      -0.67296       0.56860E-02
    265.00       0.48131       0.85000E-03
    215.00      -0.38712      -0.12750E-02
    165.00       0.83265      -0.29000E-04
    115.00      -0.81090       0.31600E-03
 67,  18
    965.00       0.27563E-01  -0.12823    
    915.00       0.74234E-01   0.27796    
    865.00      -0.68213      -0.23239    
    815.00      -0.78946      -0.42071    
    765.00       0.11185       0.33926    
    715.00      -0.67065       0.13018    
    665.00       0.31296       0.21240E-01
    615.00       0.14910      -0.13227E-01
    565.00      -0.10789       0.29776E-01
    515.00      -0.67120      -0.40730E-01
    465.00      -0.29803       0.48908E-01
    415.00      -0.48693      -0.82050E-02
    365.00      -0.53849       0.17469E-01
    315.00      -0.14580      -0.54480E-02
    265.00      -0.37852      -0.10370E-02
    215.00      -0.76101       0.83100E-03
    165.00       0.24906      -0.24000E-03
    115.00       0.12917      -0.56800E-03
 68,  18
    965.00      -0.70181      -0.60697    
    915.00       0.21429       0.23062    
    865.00       0.33264      -0.29552    
    815.00       0.13237       0.29465    
    765.00       0.36633      -0.25129    
    715.00       0.65876       0.28127    
    665.00       0.33683E-01  -0.17553    
    615.00       0.11336E-01  -0.13482    
    565.00       0.38869       0.27886E-01
    515.00       0.22601       0.75979E-01
    465.00      -0.21383      -0.46153E-01
    415.00      -0.38478       0.13394E-01
    365.00      -0.89051E-01   0.20550E-02
    315.00       0.84942      -0.35600E-03
    265.00       0.97315E-01  -0.37930E-02
    215.00      -0.21053E-01   0.10060E-02
    165.00      -0.20539       0.24800E-03
    115.00       0.73520      -0.70000E-04
 69,  18
    965.00      -0.23546      -0.93400E-03
    915.00       0.84485E-01   0.48461    
    865.00      -0.39621       0.23613    
    815.00       0.21669      -0.89851E-01
    765.00       0.85900      -0.33019    
    715.00      -0.60973       0.26391E-01
    665.00       0.60937      -0.10304    
    615.00       0.85215E-01   0.34884E-01
    565.00      -0.71831       0.28121E-01
    515.00      -0.47967      -0.61668E-01
    465.00       0.64932      -0.25961E-01
    415.00       0.18154E-01  -0.18951E-01
    365.00       0.55831      -0.16642E-01
    315.00      -0.49599      -0.78600E-03
    265.00       0.43071      -0.41500E-03
    215.00      -0.81560       0.93800E-03
    165.00      -0.24399      -0.66500E-03
    115.00       0.87205       0.13300E-03
 70,  18
    965.00      -0.79632      -0.15937    
    915.00       0.30689E-01  -0.28606    
    865.00       0.59282      -0.49572    
    815.00      -0.17691       0.34250    
    765.00       0.64344      -0.29702    
    715.00       0.48558      -0.29224    
    665.00      -0.53228      -0.18640    
    615.00      -0.73737       0.84370E-01
    565.00       0.93681E-01   0.53156E-01
    515.00       0.12429       0.47952E-01
    465.00       0.49344       0.35220E-02
    415.00       0.12924       0.68030E-02
    365.00       0.33921E-01   0.15521E-01
    315.00       0.18302      -0.19480E-02
    265.00       0.77243      -0.24670E-02
    215.00       0.26692      -0.11060E-02
    165.00      -0.77508      -0.32400E-03
    115.00      -0.29328E-01  -0.12400E-03
 71,  18
    965.00      -0.51476      -0.45704    
    915.00       0.96817      -0.14510    
    865.00      -0.62543       0.47159    
    815.00       0.12217      -0.20949    
    765.00      -0.72995E-01  -0.75330E-02
    715.00       0.16329      -0.88054E-01
    665.00      -0.12892       0.10350    
    615.00      -0.30750       0.32445E-01
    565.00      -0.64903      -0.25021E-01
    515.00      -0.85506      -0.48891E-01
    465.00      -0.53994       0.41883E-01
    415.00      -0.73030       0.18989E-01
    365.00      -0.82557      -0.97000E-03
    315.00       0.20444      -0.29070E-02
    265.00       0.54194      -0.15050E-02
    215.00      -0.70888E-01   0.11420E-02
    165.00       0.82189      -0.36300E-03
    115.00      -0.96479       0.45100E-03
 72,  18
    965.00       0.61321       0.50318    
    915.00      -0.98899      -0.75898E-01
    865.00      -0.26385      -0.23793    
    815.00      -0.33722       0.19251    
    765.00      -0.80424      -0.70934E-01
    715.00       0.49004E-01   0.14101E-01
    665.00      -0.83090E-02   0.88131E-01
    615.00       0.28957      -0.15324    
    565.00       0.15732       0.82555E-01
    515.00      -0.65837      -0.53726E-01
    465.00      -0.51921      -0.46299E-01
    415.00      -0.48666      -0.93260E-02
    365.00      -0.99114       0.65790E-02
    315.00       0.91860      -0.16730E-02
    265.00      -0.70120       0.55300E-03
    215.00       0.28430E-02   0.12970E-02
    165.00      -0.59338      -0.53800E-03
    115.00      -0.61065E-01   0.33600E-03
 73,  18
    965.00      -0.25429      -0.20450    
    915.00      -0.19527      -0.17141    
    865.00       0.19253       0.36212    
    815.00       0.69641       0.66846E-01
    765.00       0.54212      -0.35889    
    715.00      -0.73602      -0.30763    
    665.00       0.24116E-01  -0.24979    
    615.00      -0.14925      -0.44197E-01
    565.00       0.14083E-01  -0.90050E-01
    515.00       0.14036      -0.23187E-01
    465.00      -0.43512E-01   0.26049E-01
    415.00       0.51274      -0.56700E-02
    365.00      -0.11487       0.11295E-01
    315.00      -0.26061       0.44730E-02
    265.00       0.81730      -0.35590E-02
    215.00       0.31708      -0.36400E-03
    165.00      -0.20785E-01  -0.44200E-03
    115.00      -0.59036E-01   0.37600E-03
 74,  18
    965.00       0.16364       0.52351    
    915.00      -0.23509      -0.57524E-01
    865.00       0.47357      -0.33869    
    815.00      -0.61281       0.46487    
    765.00      -0.35942       0.15523    
    715.00       0.14788      -0.66240E-01
    665.00      -0.20636       0.13317    
    615.00       0.19618       0.12431    
    565.00      -0.45889      -0.81671E-01
    515.00       0.31511       0.34104E-01
    465.00      -0.24043      -0.45779E-01
    415.00       0.28940E-01  -0.25137E-01
    365.00      -0.43056       0.10420E-02
    315.00       0.10274       0.13100E-03
    265.00      -0.53981       0.85900E-03
    215.00      -0.28696E-01  -0.13090E-02
    165.00       0.35401      -0.42100E-03
    115.00       0.44446      -0.65200E-03
 75,  18
    965.00       0.10867      -0.20939    
    915.00      -0.26098       0.10079    
    865.00      -0.39607      -0.99000E-04
    815.00       0.40396      -0.19565    
    765.00      -0.38133       0.28072    
    715.00       0.70231       0.29560    
    665.00       0.32424       0.18146    
    615.00      -0.14317       0.63038E-01
    565.00       0.35819       0.12359E-01
    515.00       0.32847E-01  -0.36300E-01
    465.00      -0.89676      -0.30508E-01
    415.00       0.11309      -0.14677E-01
    365.00      -0.95435       0.12901E-01
    315.00      -0.73097      -0.37510E-02
    265.00      -0.29396       0.34120E-02
    215.00       0.50166      -0.22000E-03
    165.00      -0.50112       0.32000E-03
    115.00       0.64200       0.63500E-03
 76,  18
    965.00      -0.80766E-01   0.45413    
    915.00       0.13980       0.57922    
    865.00      -0.29804      -0.35718E-01
    815.00       0.82876       0.62477E-01
    765.00       0.41584       0.24662    
    715.00       0.31538      -0.39047E-01
    665.00       0.46180      -0.15919    
    615.00      -0.29129       0.12113    
    565.00      -0.96982       0.10175    
    515.00       0.70626E-01  -0.66645E-01
    465.00       0.33032       0.10496E-01
    415.00       0.62101      -0.27555E-01
    365.00      -0.24840       0.33100E-03
    315.00       0.59539       0.62550E-02
    265.00      -0.97824       0.32230E-02
    215.00       0.35456      -0.93100E-03
    165.00       0.19253      -0.30300E-03
    115.00      -0.88992      -0.43600E-03
 77,  18
    965.00       0.41514       0.26196    
    915.00       0.77665E-01  -0.23534    
    865.00      -0.62922      -0.50486    
    815.00      -0.19122      -0.39271    
    765.00       0.62686      -0.12125    
    715.00      -0.42913      -0.58019E-01
    665.00       0.14880      -0.13083    
    615.00       0.18068E-01  -0.15968    
    565.00      -0.49008       0.90623E-01
    515.00      -0.79983      -0.71235E-01
    465.00      -0.74106      -0.27910E-02
    415.00      -0.38360       0.30540E-02
    365.00       0.21965      -0.89940E-02
    315.00       0.42942E-01   0.61200E-03
    265.00      -0.52349      -0.31420E-02
    215.00      -0.35441       0.64100E-03
    165.00       0.65414      -0.62900E-03
    115.00       0.54304       0.10900E-03
 78,  18
    965.00      -0.34260E-02   0.72552E-01
    915.00      -0.47704E-01   0.33751    
    865.00      -0.74427       0.35007    
    815.00      -0.80418      -0.11954    
    765.00       0.58179      -0.11577    
    715.00      -0.34044E-01   0.25175    
    665.00       0.47009      -0.22742E-01
    615.00       0.10709      -0.92853E-01
    565.00       0.19221       0.17093E-01
    515.00       0.42278      -0.12978E-01
    465.00       0.81814       0.15970E-01
    415.00      -0.20518      -0.46250E-02
    365.00       0.22353      -0.15596E-01
    315.00       0.28456      -0.62580E-02
    265.00      -0.43424       0.26590E-02
    215.00      -0.50079       0.96100E-03
    165.00      -0.70736       0.73300E-03
    115.00      -0.29705      -0.26000E-04
 79,  18
    965.00       0.29667       0.31581    
    915.00      -0.85642       0.23304    
    865.00      -0.22680       0.12698    
    815.00      -0.36336      -0.45358    
    765.00      -0.18637       0.25057E-01
    715.00       0.91244       0.14991    
    665.00       0.86484       0.71284E-01
    615.00      -0.51030      -0.12525E-01
    565.00      -0.28268E-01   0.10142    
    515.00      -0.65903       0.64494E-01
    465.00       0.50998E-01   0.15901E-01
    415.00      -0.67538       0.10883E-01
    365.00       0.83157      -0.16898E-01
    315.00       0.14541       0.73460E-02
    265.00       0.49057      -0.20900E-03
    215.00       0.87781      -0.15000E-02
    165.00      -0.73489       0.35000E-04
    115.00      -0.34058       0.48200E-03
 80,  18
    965.00       0.77076      -0.13364    
    915.00      -0.38700E-01  -0.47643E-01
    865.00      -0.10859      -0.46871E-01
    815.00      -0.31250      -0.28274E-01
    765.00      -0.46071E-01   0.23899    
    715.00      -0.27346E-01  -0.10474    
    665.00      -0.48825      -0.13910    
    615.00      -0.35740       0.50000E-04
    565.00      -0.10191       0.10866    
    515.00      -0.12375      -0.15848E-01
    465.00      -0.19494       0.60140E-02
    415.00       0.57490      -0.18530E-01
    365.00       0.57227       0.16523E-01
    315.00       0.47414       0.26160E-02
    265.00       0.54686      -0.29000E-03
    215.00      -0.26217      -0.84200E-03
    165.00       0.61858       0.74600E-03
    115.00      -0.37872      -0.64000E-03
 81,  18
    965.00      -0.37683       0.22173    
    915.00       0.84792E-01   0.59114    
    865.00      -0.54388      -0.39973    
    815.00       0.75082       0.22375    
    765.00       0.91722      -0.19626    
    715.00      -0.42076      -0.80270E-02
    665.00       0.61647      -0.23506    
    615.00      -0.17021      -0.50850E-01
    565.00       0.64915       0.73600E-03
    515.00      -0.59046      -0.17900E-03
    465.00       0.37947      -0.37995E-01
    415.00      -0.64715       0.78820E-02
    365.00      -0.34626      -0.24110E-02
    315.00      -0.24744      -0.95800E-03
    265.00      -0.38868E-01   0.32040E-02
    215.00      -0.19098      -0.70100E-03
    165.00      -0.32017       0.46200E-03
    115.00       0.55456      -0.59300E-03
 82,  18
    965.00       0.76375      -0.74602E-01
    915.00      -0.38561       0.31936    
    865.00       0.74878       0.14132    
    815.00       0.78340      -0.34341    
    765.00       0.57561       0.57653E-01
    715.00      -0.94085      -0.11643    
    665.00      -0.47115      -0.42671E-01
    615.00       0.30369       0.12065    
    565.00       0.44015      -0.10067    
    515.00       0.45136       0.33110E-02
    465.00      -0.72880      -0.20606E-01
    415.00      -0.53698       0.38970E-02
    365.00      -0.69102       0.14179E-01
    315.00       0.11082      -0.15430E-02
    265.00       0.65969      -0.23770E-02
    215.00      -0.11049      -0.10510E-02
    165.00      -0.96195      -0.48900E-03
    115.00       0.17847       0.34400E-03
 83,  18
    965.00      -0.30367       0.34755    
    915.00      -0.54474E-01  -0.21139    
    865.00       0.13361       0.12361    
    815.00       0.67194       0.27129    
    765.00       0.59627       0.41058    
    715.00      -0.94617       0.59790E-02
    665.00      -0.21109      -0.64961E-01
    615.00      -0.33761      -0.17971E-01
    565.00       0.13189       0.66753E-01
    515.00       0.73447       0.71974E-01
    465.00       0.45930      -0.31257E-01
    415.00      -0.24936      -0.25045E-01
    365.00       0.76870E-01   0.11688E-01
    315.00      -0.26654      -0.76660E-02
    265.00      -0.46275       0.28400E-03
    215.00      -0.77849       0.14430E-02
    165.00      -0.37698       0.61900E-03
    115.00      -0.26574      -0.40000E-04
 84,  18
    965.00      -0.34737E-01   0.44520    
    915.00       0.20494       0.48650    
    865.00       0.71719       0.77985E-01
    815.00       0.26627E-01   0.50801    
    765.00       0.31189       0.94323E-01
    715.00       0.63694       0.18816    
    665.00       0.16716       0.25192E-01
    615.00      -0.65646      -0.11988    
    565.00      -0.44032       0.36161E-01
    515.00      -0.13663      -0.10390E-01
    465.00      -0.56976      -0.48686E-01
    415.00       0.42289E-01  -0.15750E-02
    365.00      -0.12714      -0.29110E-02
    315.00       0.92116       0.29600E-02
    265.00       0.88526       0.34410E-02
    215.00       0.97577      -0.14310E-02
    165.00       0.75092       0.45800E-03
    115.00      -0.38947       0.17000E-04
 85,  18
    965.00       0.40310      -0.29770E-02
    915.00       0.23850E-01  -0.13420    
    865.00       0.48556E-01   0.15736    
    815.00       0.25531       0.32452    
    765.00       0.25209       0.39797    
    715.00       0.39095       0.13862    
    665.00      -0.11991      -0.23629    
    615.00       0.65143       0.10172    
    565.00       0.26008      -0.94604E-01
    515.00      -0.53764       0.73898E-01
    465.00       0.81963E-01   0.48644E-01
    415.00      -0.58339E-01   0.98820E-02
    365.00       0.51360      -0.13971E-01
    315.00       0.73543       0.84950E-02
    265.00       0.96720E-01  -0.27660E-02
    215.00      -0.52700       0.56200E-03
    165.00       0.59684E-01   0.72300E-03
    115.00      -0.15421       0.55300E-03
 86,  18
    965.00       0.34640       0.29622    
    915.00       0.45343E-01   0.49022    
    865.00       0.52488      -0.53936E-01
    815.00      -0.29992E-01   0.32380E-01
    765.00       0.61641       0.17096    
    715.00      -0.76252       0.15234    
    665.00      -0.19898       0.16060    
    615.00       0.84577       0.60960E-01
    565.00       0.37310      -0.76517E-01
    515.00       0.26239       0.60347E-01
    465.00      -0.65484       0.20238E-01
    415.00       0.18334       0.23888E-01
    365.00       0.39913       0.24990E-02
    315.00      -0.15100      -0.71790E-02
    265.00      -0.10083      -0.41500E-03
    215.00       0.26243      -0.18500E-03
    165.00      -0.81553       0.50600E-03
    115.00      -0.16062       0.56500E-03
 87,  18
    965.00      -0.10244      -0.21564    
    915.00      -0.73004       0.17778    
    865.00       0.60389       0.28196    
    815.00       0.36177       0.11402    
    765.00      -0.47951      -0.22888    
    715.00      -0.66910      -0.25084    
    665.00      -0.89871       0.17793    
    615.00       0.30415      -0.12528    
    565.00       0.19345      -0.82491E-01
    515.00       0.32273      -0.72637E-01
    465.00       0.26099      -0.36674E-01
    415.00      -0.90379       0.18063E-01
    365.00      -0.48048      -0.11537E-01
    315.00       0.83377      -0.23580E-02
    265.00      -0.62184       0.10200E-02
    215.00      -0.41228      -0.13020E-02
    165.00      -0.67824       0.57600E-03
    115.00      -0.61109      -0.41700E-03
 88,  18
    965.00       0.51427       0.20567E-01
    915.00      -0.89610       0.37464    
    865.00      -0.82475      -0.27465    
    815.00      -0.52077E-01   0.21575E-01
    765.00      -0.97158      -0.10811    
    715.00       0.31646       0.79450E-01
    665.00       0.91777      -0.22070    
    615.00       0.44027       0.11497E-01
    565.00      -0.31322      -0.24178E-01
    515.00       0.51298       0.68030E-01
    465.00      -0.63979      -0.48386E-01
    415.00      -0.62954E-01  -0.85980E-02
    365.00      -0.18595      -0.12608E-01
    315.00       0.64640      -0.21660E-02
    265.00      -0.54283       0.19580E-02
    215.00       0.55103      -0.17060E-02
    165.00      -0.46986       0.63100E-03
    115.00      -0.24629      -0.25100E-03
 89,  18
    965.00      -0.91892       0.57974    
    915.00      -0.22091       0.15769E-01
    865.00       0.48648      -0.51169    
    815.00      -0.16560      -0.42667    
    765.00      -0.18681      -0.47579E-01
    715.00      -0.40342      -0.13072    
    665.00      -0.40883      -0.22089    
    615.00      -0.59738       0.12916    
    565.00       0.24456E-01   0.33424E-01
    515.00       0.39239      -0.57948E-01
    465.00      -0.20758      -0.42989E-01
    415.00       0.27259      -0.22920E-01
    365.00      -0.58060      -0.62650E-02
    315.00      -0.12947      -0.58850E-02
    265.00      -0.72517       0.16010E-02
    215.00       0.64435       0.15420E-02
    165.00       0.15009       0.14700E-03
    115.00      -0.61097      -0.14000E-03
 90,  18
    965.00       0.40830E-02   0.34332E-01
    915.00      -0.37053       0.46161    
    865.00       0.98534      -0.42560    
    815.00      -0.73497      -0.88850E-02
    765.00      -0.68482E-01   0.41118    
    715.00      -0.86214      -0.29520    
    665.00       0.84673      -0.75464E-01
    615.00      -0.68961       0.86915E-01
    565.00       0.56476      -0.49040E-02
    515.00       0.37806      -0.39553E-01
    465.00      -0.26774       0.49733E-01
    415.00       0.86920      -0.12454E-01
    365.00      -0.77930E-01  -0.13751E-01
    315.00      -0.21434      -0.57130E-02
    265.00       0.52069      -0.20140E-02
    215.00       0.35512      -0.15020E-02
    165.00      -0.28301      -0.23100E-03
    115.00       0.52449E-01  -0.27500E-03
 91,  18
    965.00      -0.98411      -0.27066    
    915.00      -0.40967      -0.74822E-01
    865.00      -0.72896      -0.28204    
    815.00      -0.16150      -0.47202    
    765.00       0.52333      -0.24080    
    715.00       0.48797E-01   0.15579    
    665.00       0.16725      -0.21815    
    615.00      -0.34115       0.77496E-01
    565.00      -0.45171E-01   0.10885    
    515.00      -0.36329      -0.69831E-01
    465.00      -0.80368       0.33895E-01
    415.00       0.73539       0.27442E-01
    365.00      -0.41486      -0.10894E-01
    315.00       0.70516      -0.68680E-02
    265.00       0.39230      -0.22050E-02
    215.00      -0.90374       0.14730E-02
    165.00      -0.41940      -0.19300E-03
    115.00      -0.28371       0.22200E-03
 92,  18
    965.00      -0.61814      -0.21654    
    915.00      -0.93307       0.47775    
    865.00      -0.14562       0.25818E-01
    815.00      -0.25368       0.35709    
    765.00       0.25815       0.21220    
    715.00       0.33477       0.26091    
    665.00       0.71492      -0.55649E-01
    615.00      -0.22685       0.48948E-01
    565.00       0.13703E-01  -0.10678    
    515.00      -0.56304      -0.59838E-01
    465.00       0.16022      -0.19928E-01
    415.00       0.70228      -0.24287E-01
    365.00      -0.84229       0.63000E-04
    315.00      -0.42380      -0.72740E-02
    265.00       0.16786      -0.80200E-03
    215.00      -0.11089       0.27200E-03
    165.00      -0.18289      -0.89900E-03
    115.00      -0.80005      -0.45000E-03
 93,  18
    965.00      -0.16648       0.64340    
    915.00       0.74622       0.52641    
    865.00      -0.85896      -0.42073E-01
    815.00      -0.60140      -0.49306    
    765.00      -0.10133       0.15201E-01
    715.00      -0.45453E-01   0.31143E-01
    665.00      -0.54878      -0.11299    
    615.00      -0.40517       0.10189    
    565.00       0.72309       0.60745E-01
    515.00      -0.37353       0.67453E-01
    465.00      -0.17532      -0.13759E-01
    415.00      -0.27972       0.13901E-01
    365.00      -0.34691      -0.58210E-02
    315.00       0.59327      -0.17310E-02
    265.00      -0.12173       0.38530E-02
    215.00      -0.18625      -0.48100E-03
    165.00       0.17412       0.42000E-03
    115.00      -0.27124E-01   0.38300E-03
 94,  18
    965.00      -0.15189       0.38736    
    915.00       0.50589      -0.20348    
    865.00      -0.90412      -0.49940    
    815.00       0.17082      -0.18652    
    765.00       0.51930E-02   0.60311E-01
    715.00      -0.35607      -0.25885    
    665.00       0.48029      -0.23972    
    615.00      -0.35151      -0.11224    
    565.00       0.24692       0.76104E-01
    515.00      -0.57154      -0.78299E-01
    465.00       0.86946      -0.17992E-01
    415.00       0.14923      -0.21296E-01
    365.00      -0.23231       0.27240E-02
    315.00       0.97151E-01   0.67180E-02
    265.00      -0.18439       0.64700E-03
    215.00      -0.74149E-01   0.60500E-03
    165.00       0.70509      -0.56000E-03
    115.00       0.45770      -0.54600E-03
 95,  18
    965.00      -0.18440      -0.51247E-01
    915.00       0.19159      -0.25469    
    865.00       0.24853      -0.51444    
    815.00      -0.69315       0.11080    
    765.00      -0.14313       0.10637    
    715.00      -0.87996       0.31682E-01
    665.00       0.12713       0.12850    
    615.00      -0.69641E-01   0.12026    
    565.00      -0.42380E-02  -0.85172E-01
    515.00       0.80455E-01   0.64880E-01
    465.00      -0.35481      -0.13338E-01
    415.00      -0.70806      -0.15783E-01
    365.00       0.68678      -0.95000E-03
    315.00       0.79608E-01   0.37690E-02
    265.00      -0.61366       0.16320E-02
    215.00       0.50622      -0.13590E-02
    165.00       0.37884      -0.90000E-03
    115.00       0.96271      -0.86000E-04
 96,  18
    965.00      -0.57727E-01   0.37332    
    915.00       0.52049       0.55728    
    865.00       0.32756      -0.31437    
    815.00       0.83804       0.34812    
    765.00       0.82389      -0.18908E-01
    715.00      -0.24124      -0.11366    
    665.00       0.14499       0.94286E-01
    615.00      -0.27414       0.19383E-01
    565.00       0.67731      -0.42500E-02
    515.00      -0.91893      -0.34243E-01
    465.00      -0.87165       0.29102E-01
    415.00      -0.41181      -0.12290E-02
    365.00       0.34147       0.39050E-02
    315.00       0.67097       0.83500E-03
    265.00       0.77162      -0.64200E-03
    215.00      -0.16803       0.25200E-03
    165.00       0.34541      -0.47800E-03
    115.00      -0.72140      -0.20100E-03
 97,  18
    965.00       0.78832      -0.29390E-01
    915.00       0.68028      -0.45803    
    865.00       0.36955       0.14712    
    815.00       0.63677      -0.49806    
    765.00       0.29886      -0.41786    
    715.00      -0.10069       0.45841E-01
    665.00       0.29473      -0.66674E-01
    615.00      -0.66588      -0.38210E-01
    565.00       0.50030      -0.70491E-01
    515.00       0.80147       0.28965E-01
    465.00      -0.39366      -0.37332E-01
    415.00      -0.31258       0.15495E-01
    365.00       0.68864       0.63510E-02
    315.00      -0.61640       0.40450E-02
    265.00       0.87205E-01  -0.22090E-02
    215.00       0.98565       0.66500E-03
    165.00       0.18401       0.15800E-03
    115.00      -0.17543       0.29800E-03
 98,  18
    965.00      -0.15537E-01  -0.46956    
    915.00      -0.39840      -0.84755E-01
    865.00      -0.43885       0.30886    
    815.00       0.10585E-01  -0.29279    
    765.00      -0.57961       0.11771    
    715.00      -0.84534      -0.33546    
    665.00       0.30519       0.28015E-01
    615.00       0.77626      -0.67867E-01
    565.00       0.27883      -0.84942E-01
    515.00      -0.28290       0.31310E-01
    465.00       0.45658       0.96280E-02
    415.00       0.23692       0.86100E-03
    365.00       0.22318       0.14916E-01
    315.00       0.29559E-01   0.61150E-02
    265.00      -0.15008      -0.12000E-02
    215.00       0.18906      -0.15270E-02
    165.00      -0.56574      -0.82100E-03
    115.00       0.60353       0.59100E-03
 99,  18
    965.00       0.59618      -0.27929    
    915.00      -0.88990       0.12404    
    865.00      -0.95989       0.30502    
    815.00       0.91458      -0.38460    
    765.00      -0.41808      -0.36083    
    715.00       0.50737       0.24057E-01
    665.00       0.66847       0.16282    
    615.00       0.97047       0.95546E-01
    565.00      -0.34427      -0.10790    
    515.00       0.26650      -0.31057E-01
    465.00       0.84782       0.72660E-02
    415.00      -0.69077      -0.97350E-02
    365.00       0.34003       0.10268E-01
    315.00      -0.62697      -0.65710E-02
    265.00      -0.50112E-01  -0.52000E-04
    215.00      -0.43417       0.14800E-02
    165.00      -0.65133      -0.47100E-03
    115.00       0.20773       0.92000E-04
 100,  18
    965.00      -0.76314E-01   0.61063    
    915.00      -0.54690       0.33999E-01
    865.00      -0.37493      -0.28277    
    815.00      -0.29471       0.96997E-01
    765.00      -0.37358      -0.28587    
    715.00       0.78561E-01   0.20000    
    665.00       0.63143       0.10478    
    615.00      -0.79115E-01   0.16048    
    565.00       0.68364E-01   0.68660E-02
    515.00      -0.11216      -0.17824E-01
    465.00      -0.91878      -0.35478E-01
    415.00       0.72829      -0.23093E-01
    365.00       0.70504      -0.16099E-01
    315.00      -0.65135      -0.69500E-03
    265.00       0.54986      -0.33410E-02
    215.00      -0.36874       0.11770E-02
    165.00       0.78674       0.59000E-04
    115.00      -0.89200       0.64000E-04
